time (s)	coil I (A)	last det (V)	int current (uC)
8823.133649	1.165770	0.279464	515.270447
8823.134578	0.673422	0.279464	1140.879150
8823.135508	0.086862	0.279464	1221.660400
8823.136410	0.084957	0.279464	1298.291870
8823.137308	0.084921	0.279464	1374.550659
8823.138237	0.084979	0.279464	1453.496338
8823.139141	0.085016	0.279464	1530.350708
8823.140046	0.084924	0.279464	1607.207275
8823.140931	0.084939	0.279464	1682.378296
8823.141872	0.084932	0.279464	1762.298950
8823.142780	0.084943	0.279464	1839.426880
8823.143671	0.084954	0.279464	1915.120605
8824.151525	1.189497	0.283004	549.547668
8824.152442	0.632014	0.283004	1129.104736
8824.153330	0.087158	0.283004	1206.501221
8824.154295	0.084858	0.283004	1288.389526
8824.155232	0.084913	0.283004	1367.953369
8824.156131	0.084862	0.283004	1444.244385
8824.157056	0.084807	0.283004	1522.690918
8824.157999	0.084957	0.283004	1602.805664
8824.158915	0.084935	0.283004	1680.606445
8824.159800	0.084910	0.283004	1755.751465
8824.160743	0.084880	0.283004	1835.793701
8824.161678	0.084811	0.283004	1915.091797
8825.204188	1.177028	0.257312	523.777283
8825.205091	0.674187	0.257312	1132.568115
8825.205977	0.087799	0.257312	1210.358154
8825.206943	0.084851	0.257312	1292.324341
8825.207881	0.084884	0.257312	1371.945557
8825.208780	0.085020	0.257312	1448.378174
8825.209698	0.084888	0.257312	1526.305054
8825.210632	0.084891	0.257312	1605.593628
8825.211550	0.084924	0.257312	1683.554199
8825.212441	0.084855	0.257312	1759.159790
8825.213393	0.084880	0.257312	1839.965942
8825.214322	0.084840	0.257312	1918.782349
8826.222082	1.211964	0.272555	597.498291
8826.223009	0.576152	0.272555	1131.591553
8826.223931	0.086107	0.272555	1210.982422
8826.224818	0.084902	0.272555	1286.290771
8826.225782	0.084899	0.272555	1368.133057
8826.226675	0.084939	0.272555	1443.983521
8826.227567	0.084899	0.272555	1519.713135
8826.228498	0.084990	0.272555	1598.838989
8826.229415	0.084957	0.272555	1676.744873
8826.230319	0.084895	0.272555	1753.489990
8826.231211	0.084873	0.272555	1829.196777
8826.232152	0.085009	0.272555	1909.189819
8827.267534	1.169850	0.287379	519.413330
8827.268522	0.552883	0.287379	1065.662109
8827.269418	0.086257	0.287379	1142.948730
8827.270307	0.084943	0.287379	1218.462769
8827.271205	0.084884	0.287379	1294.688599
8827.272134	0.084976	0.287379	1373.630859
8827.273042	0.084895	0.287379	1450.715576
8827.273933	0.084858	0.287379	1526.324463
8827.274867	0.084932	0.287379	1605.650635
8827.275781	0.084877	0.287379	1683.227905
8827.276685	0.084869	0.287379	1759.949829
8827.277574	0.084994	0.287379	1835.509399
8828.291552	1.187472	0.274021	537.924744
8828.292479	0.631267	0.274021	1123.109375
8828.293379	0.086818	0.274021	1201.245239
8828.294311	0.084917	0.274021	1280.387817
8828.295219	0.084950	0.274021	1357.522339
8828.296123	0.084888	0.274021	1434.260864
8828.297015	0.084888	0.274021	1509.980713
8828.297972	0.084976	0.274021	1591.302368
8828.298865	0.084932	0.274021	1667.146362
8828.299768	0.084968	0.274021	1743.872681
8828.300673	0.084939	0.274021	1820.742432
8828.301609	0.084880	0.274021	1900.190430
8829.337092	1.206980	0.274541	581.764343
8829.338032	0.571018	0.274541	1118.521362
8829.338919	0.086316	0.274541	1195.083618
8829.339845	0.084976	0.274541	1273.770996
8829.340777	0.084888	0.274541	1352.886353
8829.341688	0.084935	0.274541	1430.262451
8829.342582	0.084917	0.274541	1506.178223
8829.343536	0.084910	0.274541	1587.182007
8829.344474	0.084862	0.274541	1666.782593
8829.345378	0.084961	0.274541	1743.587280
8829.346300	0.084921	0.274541	1821.884155
8829.347244	0.084946	0.274541	1902.073486
8830.361039	1.162288	0.261030	506.757385
8830.361989	0.655789	0.261030	1129.756470
8830.362903	0.086536	0.261030	1208.850098
8830.363829	0.084862	0.261030	1287.432373
8830.364722	0.084976	0.261030	1363.315552
8830.365670	0.084946	0.261030	1443.844604
8830.366565	0.084869	0.261030	1519.802734
8830.367483	0.084932	0.261030	1597.770020
8830.368370	0.084924	0.261030	1673.097900
8830.369321	0.084946	0.261030	1753.881836
8830.370239	0.084899	0.261030	1831.818848
8830.371142	0.084939	0.261030	1908.518677
8831.403464	1.161185	0.293478	508.599152
8831.404415	0.639972	0.293478	1117.212402
8831.405322	0.086646	0.293478	1195.799927
8831.406222	0.084917	0.293478	1272.225220
8831.407112	0.084825	0.293478	1347.719849
8831.408070	0.085034	0.293478	1429.182617
8831.408986	0.084888	0.293478	1506.939697
8831.409883	0.084902	0.293478	1583.097046
8831.410776	0.084902	0.293478	1658.914795
8831.411727	0.084891	0.293478	1739.646484
8831.412641	0.084906	0.293478	1817.250610
8831.413535	0.084917	0.293478	1893.166382
8832.422349	1.163873	0.283133	512.104187
8832.423321	0.653719	0.283133	1147.519531
8832.424228	0.086312	0.283133	1225.804687
8832.425139	0.084968	0.283133	1303.210815
8832.426038	0.085023	0.283133	1379.646729
8832.426956	0.084965	0.283133	1457.644287
8832.427872	0.084976	0.283133	1535.481934
8832.428781	0.084954	0.283133	1612.704712
8832.429679	0.084921	0.283133	1688.963501
8832.430621	0.084983	0.283133	1769.017456
8832.431518	0.084924	0.283133	1845.194580
8832.432419	0.084946	0.283133	1921.731201
8833.477115	1.183473	0.272261	560.966125
8833.478021	0.624467	0.272261	1126.732788
8833.478946	0.087001	0.272261	1207.208496
8833.479883	0.084913	0.272261	1286.772339
8833.480803	0.084888	0.272261	1364.869019
8833.481690	0.084994	0.272261	1440.258545
8833.482628	0.084899	0.272261	1519.893555
8833.483566	0.084869	0.272261	1599.500977
8833.484487	0.084822	0.272261	1677.621826
8833.485381	0.084906	0.272261	1753.527832
8833.486330	0.084844	0.272261	1834.044556
8833.487273	0.084928	0.272261	1914.131592
8834.493901	1.155894	0.274557	505.125488
8834.494861	0.599022	0.274557	1080.186768
8834.495772	0.086437	0.274557	1158.930664
8834.496694	0.084972	0.274557	1237.274780
8834.497588	0.084921	0.274557	1313.193848
8834.498536	0.084891	0.274557	1393.670898
8834.499436	0.084943	0.274557	1470.119263
8834.500325	0.084888	0.274557	1545.584473
8834.501277	0.084987	0.274557	1626.491699
8834.502193	0.084950	0.274557	1704.305908
8834.503112	0.084888	0.274557	1782.317749
8834.503997	0.084803	0.274557	1857.368774
8835.540464	1.208522	0.277663	563.171143
8835.541393	0.602399	0.277663	1122.799561
8835.542295	0.086656	0.277663	1200.963745
8835.543181	0.084899	0.277663	1276.183960
8835.544140	0.084935	0.277663	1357.636963
8835.545052	0.084895	0.277663	1435.061279
8835.545949	0.084990	0.277663	1511.297485
8835.546883	0.084994	0.277663	1590.681763
8835.547782	0.084935	0.277663	1667.038574
8835.548677	0.084895	0.277663	1743.019653
8835.549563	0.084946	0.277663	1818.282104
8835.550510	0.085005	0.277663	1898.781738
8836.562407	1.203574	0.289764	554.847717
8836.563367	0.555150	0.289764	1087.791870
8836.564291	0.085917	0.289764	1167.178955
8836.565180	0.084924	0.289764	1242.676636
8836.566128	0.084818	0.289764	1323.084229
8836.567069	0.084847	0.289764	1402.925659
8836.567965	0.084961	0.289764	1479.050659
8836.568891	0.084990	0.289764	1557.751587
8836.569823	0.084943	0.289764	1636.918091
8836.570749	0.084862	0.289764	1715.500366
8836.571650	0.084935	0.289764	1792.027100
8836.572576	0.084917	0.289764	1870.660278
8837.605869	1.194075	0.286783	557.632935
8837.606785	0.624240	0.286783	1129.436279
8837.607674	0.087122	0.286783	1206.887329
8837.608647	0.084880	0.286783	1289.475952
8837.609573	0.084950	0.286783	1368.139648
8837.610466	0.085034	0.286783	1444.075195
8837.611407	0.084943	0.286783	1524.006226
8837.612319	0.084990	0.286783	1601.517334
8837.613239	0.084961	0.286783	1679.681396
8837.614137	0.084965	0.286783	1755.979614
8837.615090	0.084902	0.286783	1836.891602
8837.616018	0.084913	0.286783	1915.691162
8838.631894	1.167242	0.274513	526.426331
8838.632787	0.676084	0.274513	1130.169312
8838.633737	0.086700	0.274513	1212.534668
8838.634648	0.084844	0.274513	1289.827271
8838.635542	0.084939	0.274513	1365.762695
8838.636476	0.084972	0.274513	1445.126465
8838.637385	0.084994	0.274513	1522.385864
8838.638287	0.084891	0.274513	1598.957886
8838.639179	0.084968	0.274513	1674.749512
8838.640128	0.085038	0.274513	1755.450439
8838.641026	0.084917	0.274513	1831.705933
8838.641930	0.084935	0.274513	1908.487427
8839.678411	1.158918	0.281341	505.288452
8839.679394	0.607028	0.281341	1101.996582
8839.680316	0.086118	0.281341	1181.397583
8839.681202	0.084924	0.281341	1256.640503
8839.682121	0.084946	0.281341	1334.706177
8839.683063	0.084957	0.281341	1414.735962
8839.683981	0.084873	0.281341	1492.649414
8839.684878	0.084954	0.281341	1568.852783
8839.685806	0.084946	0.281341	1647.682983
8839.686735	0.084899	0.281341	1726.553833
8839.687656	0.084924	0.281341	1804.769165
8839.688543	0.084895	0.281341	1880.071045
8840.695277	1.179013	0.277623	557.672913
8840.696191	0.622247	0.277623	1126.406982
8840.697085	0.086920	0.277623	1204.113647
8840.698008	0.084965	0.277623	1282.536011
8840.698952	0.084906	0.277623	1362.687256
8840.699874	0.084924	0.277623	1440.987427
8840.700768	0.084946	0.277623	1516.929443
8840.701718	0.084880	0.277623	1597.565796
8840.702646	0.084847	0.277623	1676.304199
8840.703553	0.084921	0.277623	1753.327271
8840.704457	0.084921	0.277623	1830.095581
8840.705394	0.084998	0.277623	1909.738281
8841.745863	1.159329	0.290775	504.307983
8841.746836	0.602897	0.290775	1090.926514
8841.747758	0.086228	0.290775	1170.428711
8841.748657	0.084943	0.290775	1246.792114
8841.749546	0.084888	0.290775	1322.257324
8841.750509	0.085049	0.290775	1404.159302
8841.751412	0.084829	0.290775	1480.760010
8841.752302	0.084924	0.290775	1556.342651
8841.753240	0.084972	0.290775	1636.046265
8841.754144	0.084902	0.290775	1712.797974
8841.755041	0.084866	0.290775	1788.922485
8841.755931	0.085005	0.290775	1864.576782
8842.762752	1.190211	0.294594	584.393677
8842.763668	0.586769	0.294594	1121.873901
8842.764568	0.086689	0.294594	1199.894409
8842.765458	0.084950	0.294594	1275.499878
8842.766408	0.085023	0.294594	1356.271973
8842.767300	0.084906	0.294594	1432.008179
8842.768200	0.084954	0.294594	1508.466431
8842.769091	0.084979	0.294594	1584.182983
8842.770053	0.084965	0.294594	1665.918945
8842.770969	0.084928	0.294594	1743.713013
8842.771867	0.084851	0.294594	1819.909302
8842.772802	0.084987	0.294594	1899.371704
8843.814355	1.167832	0.275037	513.846069
8843.815301	0.611942	0.275037	1092.743286
8843.816247	0.086294	0.275037	1174.377319
8843.817170	0.084928	0.275037	1252.765869
8843.818056	0.084924	0.275037	1328.008789
8843.819006	0.084902	0.275037	1408.666016
8843.819927	0.084910	0.275037	1486.867798
8843.820827	0.084987	0.275037	1563.355713
8843.821754	0.085023	0.275037	1642.172241
8843.822697	0.084928	0.275037	1722.259277
8843.823621	0.084891	0.275037	1800.698853
8843.824518	0.084957	0.275037	1876.905518
8844.835326	1.194719	0.280273	573.465210
8844.836227	0.625049	0.280273	1136.634277
8844.837118	0.087070	0.280273	1214.213867
8844.838078	0.084910	0.280273	1295.727173
8844.839016	0.084877	0.280273	1375.341553
8844.839917	0.084954	0.280273	1451.884766
8844.840843	0.084888	0.280273	1530.490723
8844.841784	0.084847	0.280273	1610.332153
8844.842698	0.084873	0.280273	1687.906128
8844.843586	0.084891	0.280273	1763.289673
8844.844532	0.084917	0.280273	1843.621094
8844.845463	0.084899	0.280273	1922.661743
8845.877720	1.163167	0.296117	523.424927
8845.878617	0.684100	0.296117	1137.062988
8845.879505	0.087986	0.296117	1215.194458
8845.880457	0.084924	0.296117	1296.042358
8845.881357	0.084880	0.296117	1372.434692
8845.882246	0.084924	0.296117	1447.932373
8845.883159	0.084957	0.296117	1525.498413
8845.884083	0.084888	0.296117	1603.934692
8845.884978	0.084935	0.296117	1679.951782
8845.885868	0.084844	0.296117	1755.462769
8845.886805	0.085005	0.296117	1835.112305
8845.887699	0.084880	0.296117	1910.995361
8846.902792	1.196536	0.288201	595.874695
8846.903727	0.543560	0.288201	1104.102905
8846.904629	0.086012	0.288201	1181.685669
8846.905519	0.084965	0.288201	1257.304199
8846.906468	0.084939	0.288201	1337.911255
8846.907380	0.084866	0.288201	1415.308838
8846.908279	0.084990	0.288201	1491.715088
8846.909167	0.084884	0.288201	1567.092163
8846.910104	0.084979	0.288201	1646.717773
8846.911009	0.084935	0.288201	1723.584229
8846.911902	0.084899	0.288201	1799.398804
8846.912834	0.084917	0.288201	1878.541382
8847.948236	1.153766	0.292314	505.349457
8847.949189	0.613488	0.292314	1090.003052
8847.950091	0.086766	0.292314	1168.266357
8847.950992	0.084932	0.292314	1244.789795
8847.951882	0.084822	0.292314	1320.281128
8847.952833	0.085016	0.292314	1401.131226
8847.953742	0.084913	0.292314	1478.317505
8847.954632	0.084877	0.292314	1553.857788
8847.955564	0.084968	0.292314	1633.048218
8847.956473	0.085016	0.292314	1710.327637
8847.957374	0.084961	0.292314	1786.877441
8847.958263	0.085005	0.292314	1862.446777
8848.971254	1.181788	0.271343	553.076965
8848.972189	0.604127	0.271343	1117.935913
8848.973116	0.086261	0.271343	1197.899902
8848.974004	0.084873	0.271343	1273.267212
8848.974953	0.084939	0.271343	1353.874268
8848.975886	0.084946	0.271343	1433.129150
8848.976789	0.084833	0.271343	1509.733154
8848.977710	0.084840	0.271343	1587.870850
8848.978651	0.084818	0.271343	1667.684692
8848.979569	0.084961	0.271343	1745.678833
8848.980469	0.084910	0.271343	1822.097534
8848.981414	0.084858	0.271343	1902.288696
8850.016767	1.197978	0.298260	590.603394
8850.017687	0.588098	0.298260	1131.653687
8850.018617	0.086023	0.298260	1211.655029
8850.019509	0.084910	0.298260	1287.394409
8850.020439	0.084902	0.298260	1366.353638
8850.021364	0.084935	0.298260	1444.918823
8850.022289	0.084884	0.298260	1523.436523
8850.023186	0.084899	0.298260	1599.590576
8850.024114	0.084906	0.298260	1678.383301
8850.025059	0.084954	0.298260	1758.664429
8850.025964	0.084946	0.298260	1835.540771
8850.026886	0.084943	0.298260	1913.857910
8851.035599	1.165972	0.291122	518.857361
8851.036561	0.580734	0.291122	1077.523193
8851.037482	0.086162	0.291122	1156.878540
8851.038380	0.084840	0.291122	1233.064941
8851.039299	0.084869	0.291122	1311.059937
8851.040235	0.084924	0.291122	1390.549072
8851.041138	0.084858	0.291122	1467.176270
8851.042026	0.084906	0.291122	1542.572754
8851.042974	0.084917	0.291122	1623.074097
8851.043873	0.084829	0.291122	1699.335449
8851.044791	0.084943	0.291122	1777.312744
8851.045678	0.084954	0.291122	1852.666626
8852.087247	1.159640	0.287681	510.241577
8852.088142	0.684818	0.287681	1123.153809
8852.089096	0.086708	0.287681	1205.873047
8852.090008	0.084873	0.287681	1283.277222
8852.090907	0.084866	0.287681	1359.571533
8852.091843	0.084972	0.287681	1439.105225
8852.092753	0.085082	0.287681	1516.529663
8852.093655	0.084902	0.287681	1593.111572
8852.094544	0.084961	0.287681	1668.641846
8852.095493	0.084990	0.287681	1749.297607
8852.096390	0.084965	0.287681	1825.510864
8852.097286	0.084928	0.287681	1901.606323
8853.104122	1.178796	0.283565	571.716248
8853.105071	0.537733	0.283565	1082.025024
8853.105990	0.085844	0.283565	1160.915161
8853.106882	0.084957	0.283565	1236.697021
8853.107804	0.084957	0.283565	1315.027588
8853.108747	0.084983	0.283565	1395.166504
8853.109662	0.084906	0.283565	1472.855469
8853.110549	0.084950	0.283565	1548.206055
8853.111487	0.084987	0.283565	1627.923462
8853.112427	0.084906	0.283565	1707.735107
8853.113324	0.084928	0.283565	1783.915527
8853.114241	0.084939	0.283565	1861.804565
8854.154727	1.187468	0.293970	552.172729
8854.155637	0.635537	0.293970	1130.511475
8854.156526	0.087290	0.293970	1208.112305
8854.157489	0.084884	0.293970	1289.855591
8854.158428	0.084961	0.293970	1369.633911
8854.159329	0.084954	0.293970	1446.177124
8854.160259	0.084888	0.293970	1525.122681
8854.161188	0.085001	0.293970	1604.088867
8854.162123	0.085005	0.293970	1683.568481
8854.163013	0.084983	0.293970	1759.203247
8854.163929	0.084921	0.293970	1836.990601
8854.164858	0.085001	0.293970	1915.956787
8855.170528	1.174651	0.292777	532.116821
8855.171432	0.672682	0.292777	1140.221191
8855.172320	0.087817	0.292777	1218.203003
8855.173262	0.084939	0.292777	1298.215454
8855.174179	0.084880	0.292777	1376.050781
8855.175071	0.084902	0.292777	1451.783691
8855.175987	0.084880	0.292777	1529.534058
8855.176924	0.084906	0.292777	1609.090942
8855.177850	0.084917	0.292777	1687.724121
8855.178735	0.084910	0.292777	1762.869141
8855.179680	0.084906	0.292777	1843.105347
8855.180596	0.084943	0.292777	1920.912842
8856.224208	1.166733	0.293341	516.862915
8856.225106	0.688788	0.293341	1135.394409
8856.226086	0.086510	0.293341	1220.174194
8856.226983	0.084880	0.293341	1296.311890
8856.227871	0.084939	0.293341	1371.737671
8856.228789	0.084983	0.293341	1449.751953
8856.229725	0.084939	0.293341	1529.254883
8856.230632	0.084917	0.293341	1606.274536
8856.231523	0.085005	0.293341	1682.013916
8856.232460	0.084932	0.293341	1761.594849
8856.233367	0.084943	0.293341	1838.637817
8856.234296	0.085009	0.293341	1917.610718
8857.240005	1.154385	0.295255	502.157349
8857.240899	0.704425	0.295255	1131.913330
8857.241866	0.086744	0.295255	1215.795166
8857.242776	0.084928	0.295255	1293.079590
8857.243675	0.084943	0.295255	1369.442993
8857.244605	0.085012	0.295255	1448.504395
8857.245512	0.085045	0.295255	1525.640381
8857.246407	0.084906	0.295255	1601.631226
8857.247291	0.084957	0.295255	1676.733398
8857.248235	0.084946	0.295255	1756.922729
8857.249139	0.084921	0.295255	1833.691040
8857.250045	0.084928	0.295255	1910.635742
8858.290639	1.169304	0.294006	521.509705
8858.291615	0.568125	0.294006	1075.999634
8858.292521	0.086265	0.294006	1154.155396
8858.293429	0.084888	0.294006	1231.233398
8858.294336	0.084965	0.294006	1308.296265
8858.295254	0.084902	0.294006	1386.236572
8858.296156	0.084946	0.294006	1462.858154
8858.297048	0.084888	0.294006	1538.578003
8858.297995	0.084979	0.294006	1619.053345
8858.298890	0.084983	0.294006	1695.113037
8858.299786	0.084902	0.294006	1771.185547
8858.300676	0.084968	0.294006	1846.807251
8859.306484	1.176746	0.294131	561.307617
8859.307427	0.585432	0.294131	1113.370117
8859.308354	0.086202	0.294131	1193.279785
8859.309246	0.084917	0.294131	1269.025757
8859.310197	0.084873	0.294131	1349.739990
8859.311125	0.084891	0.294131	1428.519165
8859.312025	0.084902	0.294131	1504.931274
8859.312947	0.084902	0.294131	1583.211182
8859.313872	0.084935	0.294131	1661.776367
8859.314798	0.084899	0.294131	1740.392578
8859.315699	0.084902	0.294131	1816.889648
8859.316623	0.084862	0.294131	1895.302246
8860.360173	1.196492	0.294876	561.154602
8860.361087	0.628682	0.294876	1135.769531
8860.361975	0.087187	0.294876	1213.192017
8860.362932	0.084833	0.294876	1294.376953
8860.363850	0.084844	0.294876	1372.263550
8860.364739	0.084880	0.294876	1447.722168
8860.365670	0.084932	0.294876	1526.793579
8860.366583	0.084899	0.294876	1604.306030
8860.367499	0.084833	0.294876	1682.012817
8860.368399	0.084968	0.294876	1758.484253
8860.369343	0.084899	0.294876	1838.628662
8860.370247	0.084888	0.294876	1915.367187
8861.374980	1.179265	0.296991	582.557007
8861.375914	0.553726	0.296991	1099.736694
8861.376819	0.086060	0.296991	1177.620605
8861.377706	0.084884	0.296991	1252.912720
8861.378653	0.084976	0.296991	1333.384644
8861.379566	0.084727	0.296991	1410.739990
8861.380484	0.084836	0.296991	1488.619873
8861.381378	0.084950	0.296991	1564.565186
8861.382322	0.084928	0.296991	1644.737183
8861.383216	0.084844	0.296991	1720.587524
8861.384105	0.084895	0.296991	1796.059204
8861.385043	0.084910	0.296991	1875.704468
8862.426575	1.161097	0.295657	507.399567
8862.427536	0.645088	0.295657	1127.328979
8862.428439	0.086580	0.295657	1205.510376
8862.429341	0.084873	0.295657	1282.065918
8862.430230	0.084939	0.295657	1357.576660
8862.431166	0.085027	0.295657	1437.161743
8862.432066	0.084957	0.295657	1513.623291
8862.432978	0.084910	0.295657	1591.060913
8862.433866	0.084957	0.295657	1666.502930
8862.434804	0.084987	0.295657	1746.220337
8862.435707	0.084979	0.295657	1822.956543
8862.436603	0.084965	0.295657	1899.084839
8863.443444	1.204515	0.289466	580.576416
8863.444420	0.526501	0.289466	1094.441895
8863.445333	0.085587	0.289466	1172.583008
8863.446222	0.084844	0.289466	1248.009155
8863.447162	0.084913	0.289466	1327.827637
8863.448092	0.084910	0.289466	1406.793579
8863.448987	0.084965	0.289466	1482.836914
